Wavelength [nm];Reflectivity
242.10002;0.174419760
248.10001;0.167518680
253.60000;0.173974650
258.60000;0.174276110
263.59999;0.177229030
268.59999;0.182572040
273.09999;0.180847670
277.10000;0.187337550
281.09998;0.189347040
285.09998;0.195352970
289.09999;0.192561810
293.10000;0.192284240
297.10001;0.196664990
301.09999;0.204557120
305.09999;0.206384810
309.10000;0.209561970
313.09998;0.212105940
317.09999;0.219331160
321.10000;0.220864860
325.10000;0.229559780
329.10001;0.231318190
333.09999;0.234606430
337.10000;0.240790780
341.09998;0.247651470
345.09999;0.255766180
349.09999;0.259528760
353.10000;0.276802930
357.10001;0.281649260
360.60002;0.287840550
363.60002;0.291476100
366.60004;0.295140950
369.60003;0.298508230
372.60002;0.302851110
375.60001;0.307808250
378.60000;0.312572510
381.09997;0.317453740
383.09997;0.318389950
385.09998;0.320326090
387.09998;0.325168220
389.09999;0.326784610
391.09999;0.330161040
393.09999;0.331832920
395.10000;0.335396950
397.10000;0.337097140
399.10001;0.338423550
401.09998;0.341919900
403.09998;0.342567680
405.09999;0.344069030
407.09999;0.345872400
409.10000;0.347360520
411.09997;0.349774750
412.80001;0.351056040
415.80001;0.353776510
418.80000;0.355139170
421.80002;0.357770120
424.80004;0.361462590
427.80003;0.362910480
430.80002;0.366992800
433.80001;0.370035650
436.80003;0.372625770
439.80002;0.375019130
442.80002;0.377689960
445.80001;0.379769150
448.80000;0.381638410
451.30000;0.382998700
453.30000;0.382499750
455.30000;0.384946940
457.30001;0.385291460
459.30001;0.384594050
461.29999;0.385759410
463.29999;0.386558650
465.29999;0.387616630
467.30000;0.388168190
469.30000;0.388194410
471.29998;0.389067800
473.29998;0.389544040
475.29998;0.390451310
477.29999;0.391064640
479.29999;0.393171130
481.30000;0.394169930
483.30000;0.393970070
485.30000;0.395873520
487.30001;0.395978270
489.30001;0.397662130
491.29999;0.398447510
493.29999;0.400641830
495.29999;0.401984040
497.30000;0.403627070
499.30000;0.404590490
501.29998;0.405897800
503.30001;0.407451660
505.29999;0.408982400
507.30002;0.409531950
509.29999;0.412331790
511.29997;0.413026840
513.30000;0.415715070
515.29998;0.416098920
517.30001;0.417598960
519.29998;0.419506280
521.29996;0.422379460
523.29999;0.422869120
525.29997;0.424094800
527.30000;0.425785540
529.29997;0.427299020
531.29995;0.428261610
533.29998;0.430341180
535.29996;0.431829780
537.29999;0.433161140
539.29996;0.434637400
541.30000;0.436608790
543.30003;0.437867250
545.30001;0.439458010
547.30004;0.441059890
549.30001;0.441465230
551.29999;0.442375510
553.30002;0.443144890
555.30000;0.445092410
557.30003;0.446067690
559.30001;0.446768730
561.29998;0.447619740
563.30001;0.449441610
565.29999;0.450091690
567.30002;0.451068190
569.30000;0.452632370
571.29997;0.453587440
573.30000;0.454587910
575.29998;0.456003870
577.30001;0.457118900
579.29999;0.458288610
581.29996;0.459858690
583.29999;0.460162250
585.29997;0.461177860
587.30000;0.462776010
589.29998;0.464377850
591.30001;0.464237240
593.30004;0.464801730
595.30002;0.463880360
597.30005;0.465976540
599.30003;0.465884750
601.10003;0.465926590
602.70000;0.466845660
604.30002;0.467449490
605.89999;0.467637480
607.50008;0.467325600
609.10004;0.468270960
610.70001;0.469282510
612.29998;0.469192090
613.90001;0.471060990
615.50003;0.469389500
617.10006;0.470906910
618.70003;0.471162500
620.29999;0.472047480
621.89996;0.472329940
623.50005;0.472749860
625.10002;0.474208530
626.69998;0.473728980
628.30001;0.474088070
629.89998;0.475610910
631.69998;0.476694260
633.70001;0.476144370
635.69999;0.477159140
637.70002;0.478533770
639.70000;0.478202160
641.70003;0.479993640
643.70006;0.480256320
645.70004;0.480790820
647.70007;0.481084440
649.70005;0.481664690
651.70002;0.483822520
653.70005;0.484414940
655.70003;0.484810620
657.70006;0.486047980
659.70004;0.487381580
661.70001;0.491014630
663.70004;0.491408470
665.70002;0.494093660
667.70005;0.491881550
670.19999;0.492973090
673.20001;0.492975530
676.19997;0.495093850
679.19999;0.496033310
682.19995;0.498413210
685.19998;0.499515860
688.20000;0.500944260
691.20002;0.502050940
694.20004;0.505431470
697.20006;0.504092750
700.19996;0.505623400
701.99996;0.505070630
704.00000;0.506132540
705.99997;0.507779960
708.00000;0.508639990
709.99998;0.508575020
711.99995;0.509666800
713.99999;0.511793320
715.99996;0.512918530
717.99999;0.513595700
719.99997;0.513984320
721.99994;0.513872210
723.99998;0.516237440
725.99995;0.516487000
727.99999;0.518361690
729.99996;0.518927630
731.99993;0.519506870
733.99997;0.520513240
735.99994;0.521964070
737.99998;0.522381660
740.00001;0.523945390
741.99998;0.524150430
744.00002;0.525912700
745.99999;0.525439440
748.00003;0.528304160
750.50002;0.528546990
753.50004;0.531522330
756.50001;0.530767020
759.50003;0.533171360
762.49999;0.533771280
765.50001;0.535844680
768.50003;0.537413840
771.49999;0.539819180
774.50001;0.540909770
777.50003;0.540103910
780.99996;0.543371980
784.99997;0.543365420
788.99997;0.545143600
792.99998;0.547464850
796.99999;0.549962040
801.50002;0.550598800
806.50002;0.552843030
811.50001;0.554497660
816.50001;0.556317690
821.99997;0.558118640
828.00001;0.558677550
834.99998;0.558728640
843.00005;0.561292050
851.00001;0.561295750
859.00003;0.562218190
870.99999;0.564659060
883.00002;0.564585800
893.99999;0.572387280
903.99998;0.575423660
913.99997;0.575847980
923.99997;0.577096940
932.99997;0.581638990
940.99998;0.580264270
949.00000;0.581283690
957.00002;0.584386710
963.99999;0.587142290
969.99997;0.585672080
975.99995;0.586576520
981.99993;0.589790580
987.99998;0.590632080
994.00002;0.588994680
1000.00000;0.593656000
1006.00000;0.593373540
1012.00000;0.593326990
1018.00000;0.596408900
1023.50000;0.596510830
1028.50000;0.598764780
1033.50000;0.600133060
1038.50000;0.598964390
1043.49990;0.601463440
1048.49990;0.601898490
1053.49990;0.603759230
1058.49990;0.602123200
1063.49990;0.602978110
1068.49990;0.604604960
1073.50000;0.606282170
1078.50000;0.606669720
1083.50000;0.607104120
1088.50000;0.607322930
1093.50000;0.607229770
1098.50000;0.609358250
1103.50000;0.607924100
1108.50000;0.610717300
1113.50000;0.611230670
1118.50000;0.611582760
1123.50000;0.610484900
1128.50000;0.610027430
1133.50000;0.611361440
1138.50000;0.615361210
1143.50000;0.612338900
1148.50000;0.614453970
1153.50000;0.614673140
1158.50000;0.615831550
1163.50000;0.615422790
1168.49990;0.614299480
1173.50010;0.615438340
1178.50010;0.617520090
1183.50010;0.615745960
1188.50000;0.619000380
1193.50000;0.617349510
1198.50000;0.618964670
1203.50000;0.618146000
1208.50000;0.618471920
1213.50000;0.617607300
1218.50000;0.619904220
1223.50000;0.618834200
1228.50000;0.619149680
1233.50000;0.621080220
1238.50000;0.619197430
1243.50000;0.622566040
1248.50000;0.621439810
1253.50000;0.621931490
1258.50000;0.621752860
1263.50000;0.621995030
1268.50000;0.623828530
1273.50010;0.621907000
1278.50010;0.624103070
1283.50010;0.622537430
1288.50010;0.624385120
1293.50010;0.623747110
1298.50010;0.623785440
1303.49990;0.626249850
1308.49990;0.626736580
1313.49990;0.626527730
1318.49990;0.627165970
1323.49990;0.625363290
1328.49990;0.626437370
1333.49990;0.627985840
1338.49990;0.627955380
1343.49990;0.626188810
1348.49990;0.628239210
1353.49990;0.627799930
1358.49990;0.629120710
1363.49990;0.626829150
1368.49990;0.627260210
1373.50000;0.628567870
1378.50000;0.627476270
1383.50000;0.628961920
1388.50000;0.628231530
1393.50000;0.627860190
1398.50000;0.627717790
1403.50000;0.624382730
1408.50000;0.623019930
1413.50000;0.621723470
1418.49990;0.622409340
1423.49990;0.623378570
1428.49990;0.625945030
1433.49990;0.624415340
1438.49990;0.624955060
1443.49990;0.625896510
1448.49990;0.627776680
1453.49990;0.626890720
1458.49990;0.627212290
1463.49990;0.629207730
1468.49990;0.632340850
1473.50000;0.631555320
1478.50000;0.632525500
1483.50000;0.633297740
1488.50000;0.633564350
1493.50000;0.633825960
1498.50000;0.630763410
1503.50000;0.631514370
1508.50000;0.633325760
1513.50000;0.633605480
1518.50000;0.636577960
1523.50000;0.634788510
1528.50000;0.636468350
1533.99990;0.638032670
1540.00000;0.637340610
1546.00000;0.638662760
1551.99990;0.636379060
1558.00000;0.641622960
1563.99990;0.640356420
1570.50000;0.637280580
1577.50000;0.640094820
1584.50000;0.641847850
1591.50000;0.641659740
1598.50000;0.639849130
1605.50000;0.641163230
1612.50000;0.641121750
1619.49990;0.640536790
1626.50000;0.643327650
1633.50000;0.642193140
1640.49990;0.645778540
1647.49990;0.643388150
1654.49990;0.643508080
1661.50000;0.644828020
1668.49990;0.644918260
1676.00010;0.642838180
1684.00000;0.640697360
1692.00000;0.646568890
1700.00000;0.649238290
1708.00010;0.646774170
1716.00010;0.647680820
1724.00000;0.643933480
1732.00000;0.647252740
1740.00000;0.643970070
1748.00000;0.650251870
1756.00000;0.650220570
1763.99990;0.646934810
1772.00010;0.650803150
1780.00010;0.650106610
1788.00010;0.648071650
1796.00010;0.648321570
1804.99990;0.648630860
1814.99990;0.647747930
1824.99990;0.643743040
1834.99990;0.648440360
1844.99990;0.648823380
1854.99990;0.649850960
1864.99990;0.642604650
1875.00000;0.645214560
1885.00000;0.637072210
1895.00000;0.624193130
1905.00000;0.616926670
1915.00000;0.609090150
1925.00000;0.606069330
1934.99990;0.607335030
1944.99990;0.609264190
1954.99990;0.611404900
1964.99990;0.615258340
1975.00000;0.618886950
1985.00000;0.623994830
1995.00000;0.630028550
2005.00010;0.631013270
2015.00010;0.633022790
2025.00010;0.635922730
2035.00010;0.641648710
2045.00010;0.643776710
2055.00010;0.645956750
2065.00010;0.645675360
2075.00000;0.647927280
2085.00000;0.647550820
2095.00000;0.652504210
2105.00000;0.657173450
2115.00000;0.655141350
2125.00000;0.659907220
2135.00000;0.659408690
2145.00000;0.654796300
2155.00000;0.655280470
2165.00000;0.652262690
2175.00000;0.653705890
2184.99990;0.647965850
2194.99990;0.652520120
2205.00020;0.644590850
2215.00020;0.649161220
2225.00010;0.648124930
2235.00010;0.650877950
2245.00010;0.652059200
2255.00010;0.654800830
2265.00010;0.653441070
2275.00010;0.653925000
2285.00010;0.654180940
2295.00010;0.656120000
2305.00010;0.650495950
2315.00010;0.650985360
2325.00000;0.653891560
2335.00000;0.654119970
2345.00000;0.650751470
2355.00000;0.645291210
2365.00000;0.651942550
2375.00000;0.652534010
2385.99990;0.646250010
2400.00010;0.645268800
2418.00000;0.641575040
2440.00010;0.633728560
2466.00010;0.626198290
2496.00010;0.622125210
2527.99990;0.616247360
2559.99990;0.606802640
2592.00000;0.604719400
2623.99980;0.601681770
2655.99990;0.577069760
2687.99970;0.464427890
2720.00000;0.288040280
2752.00010;0.242266250
2783.99990;0.228556220
2816.00000;0.218829940
2847.99980;0.198349800
2879.99990;0.179896800
2912.00020;0.169373530
2944.00000;0.168849410
2976.00010;0.158601340
